#K-Path(1/A)     Band-1    Band-2    Band-3    Band-4      ...     Band-n
  0.0000    0.0000    0.0000    0.0000   15.6714   15.6714   15.6714
  0.0612    0.3063    0.3063    0.7872   15.6633   15.6633   15.6670
  0.1224    0.6109    0.6109    1.5717   15.6392   15.6392   15.6538
  0.1836    0.9123    0.9123    2.3509   15.5992   15.5992   15.6308
  0.2448    1.2090    1.2090    3.1223   15.5437   15.5437   15.5967
  0.3060    1.4995    1.4995    3.8835   15.4733   15.4733   15.5500
  0.3672    1.7823    1.7823    4.6320   15.3888   15.3888   15.4884
  0.4284    2.0563    2.0563    5.3659   15.2915   15.2915   15.4100
  0.4896    2.3199    2.3199    6.0831   15.1829   15.1829   15.3122
  0.5509    2.5719    2.5719    6.7818   15.0651   15.0651   15.1928
  0.6121    2.8107    2.8107    7.4604   14.9406   14.9406   15.0496
  0.6733    3.0345    3.0345    8.1174   14.8125   14.8125   14.8806
  0.7345    3.2413    3.2413    8.7515   14.6840   14.6845   14.6845
  0.7957    3.4288    3.4288    9.3614   14.4583   14.5605   14.5605
  0.8569    3.5943    3.5943    9.9460   14.2025   14.4449   14.4449
  0.9181    3.7351    3.7351   10.5042   13.9157   14.3423   14.3423
  0.9793    3.8484    3.8484   11.0349   13.5974   14.2569   14.2569
  1.0405    3.9315    3.9315   11.5373   13.2476   14.1928   14.1928
  1.1017    3.9823    3.9823   12.0105   12.8662   14.1529   14.1529
  1.1629    3.9994    3.9994   12.4537   12.4537   14.1394   14.1394
  1.1629    3.9994    3.9994   12.4537   12.4537   14.1394   14.1394
  1.1845    3.9987    4.0114   12.4489   12.4517   14.1402   14.1421
  1.2062    3.9965    4.0469   12.4346   12.4457   14.1423   14.1501
  1.2278    3.9928    4.1051   12.4112   12.4358   14.1459   14.1629
  1.2495    3.9877    4.1845   12.3791   12.4221   14.1508   14.1803
  1.2711    3.9811    4.2831   12.3389   12.4048   14.1572   14.2015
  1.2927    3.9730    4.3987   12.2913   12.3843   14.1650   14.2259
  1.3144    3.9635    4.5289   12.2370   12.3608   14.1741   14.2530
  1.3360    3.9525    4.6712   12.1767   12.3347   14.1846   14.2819
  1.3577    3.9400    4.8230   12.1110   12.3065   14.1965   14.3123
  1.3793    3.9261    4.9818   12.0404   12.2768   14.2096   14.3434
  1.4009    3.9106    5.1451   11.9654   12.2462   14.2240   14.3750
  1.4226    3.8937    5.3106   11.8865   12.2154   14.2397   14.4065
  1.4442    3.8753    5.4759   11.8040   12.1853   14.2566   14.4378
  1.4659    3.8554    5.6388   11.7183   12.1568   14.2746   14.4684
  1.4875    3.8340    5.7971   11.6297   12.1310   14.2938   14.4982
  1.5091    3.8111    5.9486   11.5383   12.1088   14.3141   14.5271
  1.5308    3.7868    6.0914   11.4444   12.0914   14.3354   14.5548
  1.5524    3.7609    6.2234   11.3480   12.0801   14.3578   14.5814
  1.5741    3.7335    6.3428   11.2494   12.0760   14.3811   14.6067
  1.5741    3.7335    6.3428   11.2494   12.0760   14.3811   14.6067
  1.6390    3.6423    6.6095   10.9403   12.1174   14.4564   14.6750
  1.7039    3.5375    6.7167   10.6117   12.2536   14.5386   14.7326
  1.7688    3.4191    6.6586   10.2624   12.4840   14.6263   14.7816
  1.8337    3.2871    6.4541    9.8895   12.7873   14.7180   14.8253
  1.8986    3.1418    6.1344    9.4894   13.1332   14.8121   14.8673
  1.9636    2.9832    5.7309    9.0575   13.4932   14.9072   14.9113
  2.0285    2.8117    5.2705    8.5897   13.8458   14.9604   15.0017
  2.0934    2.6276    4.7746    8.0821   14.1763   15.0168   15.0943
  2.1583    2.4316    4.2605    7.5320   14.4758   15.0811   15.1835
  2.2232    2.2242    3.7420    6.9379   14.7395   15.1529   15.2682
  2.2882    2.0061    3.2304    6.2999   14.9657   15.2305   15.3471
  2.3531    1.7782    2.7350    5.6191   15.1547   15.3111   15.4193
  2.4180    1.5414    2.2629    4.8984   15.3086   15.3913   15.4837
  2.4829    1.2969    1.8188    4.1414   15.4302   15.4674   15.5396
  2.5478    1.0457    1.4053    3.3529   15.5231   15.5357   15.5863
  2.6128    0.7891    1.0217    2.5382   15.5908   15.5927   15.6232
  2.6777    0.5284    0.6645    1.7035   15.6357   15.6365   15.6498
  2.7426    0.2649    0.3269    0.8552   15.6623   15.6628   15.6660
  2.8075    0.0000    0.0000    0.0000   15.6714   15.6714   15.6714
  2.8075    0.0000    0.0000    0.0000   15.6714   15.6714   15.6714
  2.8605    0.2338    0.2338    0.7047   15.6648   15.6669   15.6669
  2.9135    0.4667    0.4667    1.4084   15.6451   15.6538   15.6538
  2.9665    0.6979    0.6979    2.1103   15.6116   15.6322   15.6322
  3.0195    0.9264    0.9264    2.8093   15.5634   15.6026   15.6026
  3.0725    1.1510    1.1510    3.5042   15.4993   15.5657   15.5657
  3.1255    1.3708    1.3708    4.1938   15.4180   15.5222   15.5222
  3.1785    1.5843    1.5843    4.8764   15.3178   15.4731   15.4731
  3.2316    1.7902    1.7902    5.5505   15.1972   15.4196   15.4196
  3.2846    1.9869    1.9869    6.2140   15.0545   15.3631   15.3631
  3.3376    2.1727    2.1727    6.8650   14.8884   15.3049   15.3049
  3.3906    2.3460    2.3460    7.5011   14.6975   15.2466   15.2466
  3.4436    2.5047    2.5047    8.1198   14.4811   15.1899   15.1899
  3.4966    2.6471    2.6471    8.7180   14.2387   15.1363   15.1363
  3.5496    2.7714    2.7714    9.2920   13.9712   15.0876   15.0876
  3.6026    2.8758    2.8758    9.8370   13.6810   15.0453   15.0453
  3.6556    2.9587    2.9587   10.3445   13.3740   15.0108   15.0108
  3.7086    3.0190    3.0190   10.7974   13.0656   14.9853   14.9853
  3.7616    3.0555    3.0555   11.1518   12.7984   14.9695   14.9695
  3.8146    3.0678    3.0678   11.3009   12.6785   14.9642   14.9642
  3.8146    3.0678    3.0678   11.3009   12.6785   14.9642   14.9642
  3.8579    3.0717    3.1184   11.2931   12.6755   14.9606   14.9631
  3.9012    3.0838    3.2641   11.2698   12.6667   14.9499   14.9596
  3.9444    3.1051    3.4888   11.2319   12.6522   14.9325   14.9535
  3.9877    3.1373    3.7721   11.1807   12.6322   14.9088   14.9444
  4.0310    3.1824    4.0934   11.1181   12.6070   14.8796   14.9318
  4.0743    3.2425    4.4341   11.0471   12.5768   14.8459   14.9152
  4.1176    3.3201    4.7780   10.9715   12.5417   14.8086   14.8942
  4.1608    3.4169    5.1107   10.8964   12.5015   14.7688   14.8685
  4.2041    3.5344    5.4187   10.8279   12.4559   14.7277   14.8382
  4.2474    3.6731    5.6894   10.7737   12.4044   14.6865   14.8036
  4.2907    3.8330    5.9112   10.7416   12.3460   14.6463   14.7653
  4.3340    4.0129    6.0741   10.7390   12.2795   14.6083   14.7242
  4.3772    4.2107    6.1717   10.7709   12.2037   14.5738   14.6819
  4.4205    4.4236    6.2018   10.8382   12.1172   14.5438   14.6399
  4.4638    4.6481    6.1679   10.9377   12.0187   14.5195   14.6001
  4.5071    4.8797    6.0772   11.0625   11.9076   14.5018   14.5643
  4.5504    5.1136    5.9394   11.2039   11.7838   14.4916   14.5342
  4.5936    5.3437    5.7649   11.3533   11.6482   14.4896   14.5111
  4.6369    5.5634    5.5634   11.5034   11.5034   14.4961   14.4961
  4.6369    5.5634    5.5634   11.5034   11.5034   14.4961   14.4961
  4.6675    5.5527    5.5527   11.5101   11.5101   14.4943   14.4943
  4.6981    5.5212    5.5212   11.5301   11.5301   14.4887   14.4887
  4.7287    5.4698    5.4698   11.5627   11.5627   14.4796   14.4796
  4.7593    5.3999    5.3999   11.6066   11.6066   14.4669   14.4669
  4.7899    5.3136    5.3136   11.6605   11.6605   14.4509   14.4509
  4.8205    5.2133    5.2133   11.7227   11.7227   14.4317   14.4317
  4.8511    5.1017    5.1017   11.7913   11.7913   14.4096   14.4096
  4.8817    4.9816    4.9816   11.8646   11.8646   14.3849   14.3849
  4.9123    4.8561    4.8561   11.9406   11.9406   14.3581   14.3581
  4.9429    4.7285    4.7285   12.0174   12.0174   14.3297   14.3297
  4.9735    4.6018    4.6018   12.0932   12.0932   14.3003   14.3003
  5.0041    4.4796    4.4796   12.1662   12.1662   14.2706   14.2706
  5.0347    4.3649    4.3649   12.2345   12.2345   14.2416   14.2416
  5.0654    4.2611    4.2611   12.2964   12.2964   14.2141   14.2141
  5.0960    4.1712    4.1712   12.3502   12.3502   14.1894   14.1894
  5.1266    4.0980    4.0980   12.3942   12.3942   14.1686   14.1686
  5.1572    4.0439    4.0439   12.4268   12.4268   14.1528   14.1528
  5.1878    4.0106    4.0106   12.4469   12.4469   14.1428   14.1428
  5.2184    3.9994    3.9994   12.4537   12.4537   14.1394   14.1394
